*RAS_DATA_START
*RAS_HEADER_START
*DISP_FMT_X "%.2f"
*DISP_FMT_Y "%.0f"
*DISP_FULLSCALE "687.2046452403"
*DISP_LINE_COLOR "255.0000000000"
*DISP_LINE_STYLE "0.0000000000"
*DISP_LINE_WIDTH "0.2500000000"
*DISP_NOTE "Collected Data-11"
*DISP_OFFSET_Y "0.0000000000"
*DISP_PEAKSEARCH_UNIT_Y "cps"
*DISP_RANGE_BOTTOM "-432.5080846559"
*DISP_RANGE_LEFT "27.2093453401"
*DISP_RANGE_LOGCUTOFF "0.0100000000"
*DISP_RANGE_RIGHT "31.0324181026"
*DISP_RANGE_TOP "687.2046452403"
*DISP_SCALE_MODE_Y "0.0000000000"
*DISP_TAB_NAME "2-Theta"
*DISP_TITLE_Y "Intensity"
*DISP_UNIT_Y "cps"
*DISP_WINDOW_NAME "MSG_MACROENGINE"
*FILE_COMMENT " "
*FILE_MD5 ""
*FILE_MEMO "[H2Pc/FePc]x4/Si N=4 Multilayer, 160*C Dep. Temp., 72 nm Total Thickness"
*FILE_OPERATOR "Administrator"
*FILE_SAMPLE "MB120718Si3"
*FILE_TYPE "RAS_RAW"
*FILE_USERGROUP "System Manager"
*FILE_VERSION "1.0000000000"
*HW_ATTACHMENT_ID "ATT0025"
*HW_ATTACHMENT_NAME "Standard|Standard"
*HW_COUNTER_ID-0 "CUT0021"
*HW_COUNTER_ID-1 "CUT0020"
*HW_COUNTER_ID-2 ""
*HW_COUNTER_ID-3 "CSL0021"
*HW_COUNTER_ID-4 "CMC0021"
*HW_COUNTER_NAME-0 "SC-70|SC-70"
*HW_COUNTER_NAME-1 "None|None"
*HW_COUNTER_NAME-2 ""
*HW_COUNTER_NAME-3 "BBM|BBM"
*HW_COUNTER_NAME-4 "検出器モノクロメータ|Detector monochromator"
*HW_COUNTER_SELECT_NAME "SC-70|SC-70"
*HW_ECP_HV "638.0000000000"
*HW_ECP_HV_UNIT "V"
*HW_GONIOMETER_ID "GON0023"
*HW_GONIOMETER_NAME "SmartLab|SmartLab"
*HW_GONIOMETER_RADIUS-0 "90.0"
*HW_GONIOMETER_RADIUS-1 "114.0"
*HW_GONIOMETER_RADIUS-2 "190.0"
*HW_GONIOMETER_RADIUS-3 "300.0"
*HW_GONIOMETER_RADIUS-4 "187.0"
*HW_GONIOMETER_RADIUS-5 "300.0"
*HW_GONIOMETER_RADIUS-6 "113.0"
*HW_GONIOMETER_RADIUS-7 "331.0"
*HW_I_OPT_ID-0 "CBO0021"
*HW_I_OPT_ID-1 "ICR0023"
*HW_I_OPT_ID-2 "ISL0021"
*HW_I_OPT_ID-3 "ISO0021"
*HW_I_OPT_ID-4 "IAD0021"
*HW_I_OPT_ID-5 "IPR0001"
*HW_I_OPT_NAME-0 "CBOユニット|CBO unit"
*HW_I_OPT_NAME-1 "標準入射光学ユニット|Standard incident optical unit"
*HW_I_OPT_NAME-2 "標準入射スリットボックス|Standard incident slit box"
*HW_I_OPT_NAME-3 "入射平行スリット|Incident parallel slit"
*HW_I_OPT_NAME-4 "長手制限スリット|Length limiting slit"
*HW_I_OPT_NAME-5 "None|None"
*HW_R_ATTENUATER_AUTOMODE "0"
*HW_R_OPT_ID-0 "RSS0021"
*HW_R_OPT_ID-1 "RCR0022"
*HW_R_OPT_ID-2 "RSO0021"
*HW_R_OPT_ID-3 "RRS0021"
*HW_R_OPT_ID-4 "ATN0021"
*HW_R_OPT_ID-5 "RFL0021"
*HW_R_OPT_ID-6 "RAD0021"
*HW_R_OPT_NAME-0 "標準受光スリットボックス1|Standard receiving slit box # 1"
*HW_R_OPT_NAME-1 "標準受光光学ユニット1|Standard receiving unit # 1"
*HW_R_OPT_NAME-2 "標準受光光学ユニット2|Standard receiving optical unit # 2"
*HW_R_OPT_NAME-3 "標準受光スリットボックス2|Standard receiving slit box # 2"
*HW_R_OPT_NAME-4 "標準アッテネータ|Standard Attenuator"
*HW_R_OPT_NAME-5 "Cu Kβ|Cu K-beta"
*HW_R_OPT_NAME-6 "調整用受光スリット|Alignment receiving slit"
*HW_SAMPLE_HOLDER_ID "SMP0023"
*HW_SAMPLE_HOLDER_NAME "標準Zステージ|Standard Z stage"
*HW_XG_CURRENT_MAX "50"
*HW_XG_CURRENT_MIN "2"
*HW_XG_CURRENT_RESOLUTION "2"
*HW_XG_CURRENT_UNIT "mA"
*HW_XG_FOCUS "1mm x 10mm"
*HW_XG_FOCUS_TYPE "Normal"
*HW_XG_ID ""
*HW_XG_NAME "3kW 封入管(ID:1200)|3kW Sealed tube(ID:1200)"
*HW_XG_TARGET_ATOMIC_NUMBER "29.0000000000"
*HW_XG_TARGET_NAME "Cu"
*HW_XG_TYPE "Hermetic"
*HW_XG_VOLTAGE_MAX "60"
*HW_XG_VOLTAGE_MIN "20"
*HW_XG_VOLTAGE_RESOLUTION "2"
*HW_XG_VOLTAGE_UNIT "kV"
*HW_XG_WATT_MAX "2"
*HW_XG_WATT_UNIT "kW"
*HW_XG_WAVE_LENGTH_ALPHA1 "1.540593"
*HW_XG_WAVE_LENGTH_ALPHA2 "1.544414"
*HW_XG_WAVE_LENGTH_BETA "1.392250"
*MEAS_COND_AXIS_NAME-0 "Theta/2-Theta"
*MEAS_COND_AXIS_NAME-1 "2-Theta"
*MEAS_COND_AXIS_NAME-2 "Omega"
*MEAS_COND_AXIS_NAME-3 "Z"
*MEAS_COND_AXIS_NAME-4 "2-Theta/Omega"
*MEAS_COND_AXIS_NAME-5 "Theta_s"
*MEAS_COND_AXIS_NAME-6 "Theta_d"
*MEAS_COND_AXIS_NAME-7 "Ts"
*MEAS_COND_AXIS_NAME-8 "CBO selection slit"
*MEAS_COND_AXIS_NAME-9 "M"
*MEAS_COND_AXIS_NAME-10 "Incident parallel slit"
*MEAS_COND_AXIS_NAME-11 "Incident slit"
*MEAS_COND_AXIS_NAME-12 ""
*MEAS_COND_AXIS_NAME-13 "Zs"
*MEAS_COND_AXIS_NAME-14 "Incident monochromator"
*MEAS_COND_AXIS_NAME-15 "Length limiting slit"
*MEAS_COND_AXIS_NAME-16 "Center slit"
*MEAS_COND_AXIS_NAME-17 "Filter"
*MEAS_COND_AXIS_NAME-18 "Receiving slit # 1"
*MEAS_COND_AXIS_NAME-19 "Receiving slit # 2"
*MEAS_COND_AXIS_NAME-20 "Receiving optical device"
*MEAS_COND_AXIS_NAME-21 "Receiving parallel slit"
*MEAS_COND_AXIS_NAME-22 "Alignment receiving slit"
*MEAS_COND_AXIS_NAME-23 ""
*MEAS_COND_AXIS_NAME-24 ""
*MEAS_COND_AXIS_NAME-25 "Zd"
*MEAS_COND_AXIS_NAME-26 "Attenuator"
*MEAS_COND_AXIS_NAME-27 "Diffracted beam monochromator"
*MEAS_COND_AXIS_NAME-28 "Monochromator slit"
*MEAS_COND_AXIS_NAME-29 "Primary beam"
*MEAS_COND_AXIS_NAME-30 "HV"
*MEAS_COND_AXIS_NAME-31 "PHA"
*MEAS_COND_AXIS_NAME_INTERNAL-0 "TwoThetaTheta"
*MEAS_COND_AXIS_NAME_INTERNAL-1 "TwoTheta"
*MEAS_COND_AXIS_NAME_INTERNAL-2 "Omega"
*MEAS_COND_AXIS_NAME_INTERNAL-3 "Z"
*MEAS_COND_AXIS_NAME_INTERNAL-4 "TwoThetaOmega"
*MEAS_COND_AXIS_NAME_INTERNAL-5 "ThetaS"
*MEAS_COND_AXIS_NAME_INTERNAL-6 "ThetaD"
*MEAS_COND_AXIS_NAME_INTERNAL-7 "Ts"
*MEAS_COND_AXIS_NAME_INTERNAL-8 "CBO"
*MEAS_COND_AXIS_NAME_INTERNAL-9 "CBO-M"
*MEAS_COND_AXIS_NAME_INTERNAL-10 "IncidentSollerSlit"
*MEAS_COND_AXIS_NAME_INTERNAL-11 "IncidentSlitBox"
*MEAS_COND_AXIS_NAME_INTERNAL-12 "IncidentSlitBox-_Axis"
*MEAS_COND_AXIS_NAME_INTERNAL-13 "Zs"
*MEAS_COND_AXIS_NAME_INTERNAL-14 "IncidentMonochromator"
*MEAS_COND_AXIS_NAME_INTERNAL-15 "IncidentAxdSlit"
*MEAS_COND_AXIS_NAME_INTERNAL-16 "CenterSlit"
*MEAS_COND_AXIS_NAME_INTERNAL-17 "Filter"
*MEAS_COND_AXIS_NAME_INTERNAL-18 "ReceivingSlitBox1"
*MEAS_COND_AXIS_NAME_INTERNAL-19 "ReceivingSlitBox2"
*MEAS_COND_AXIS_NAME_INTERNAL-20 "ReceivingOptics"
*MEAS_COND_AXIS_NAME_INTERNAL-21 "ReceivingSollerSlit"
*MEAS_COND_AXIS_NAME_INTERNAL-22 "ReceivingAxdSlit"
*MEAS_COND_AXIS_NAME_INTERNAL-23 "ReceivingSlitBox1-_Axis"
*MEAS_COND_AXIS_NAME_INTERNAL-24 "ReceivingSlitBox2-_Axis"
*MEAS_COND_AXIS_NAME_INTERNAL-25 "ReceivingSlitBox2-Zd"
*MEAS_COND_AXIS_NAME_INTERNAL-26 "Attenuator"
*MEAS_COND_AXIS_NAME_INTERNAL-27 "CounterMonochromator"
*MEAS_COND_AXIS_NAME_INTERNAL-28 "CounterSlit"
*MEAS_COND_AXIS_NAME_INTERNAL-29 "IncidentPrimary"
*MEAS_COND_AXIS_NAME_INTERNAL-30 "HV"
*MEAS_COND_AXIS_NAME_INTERNAL-31 "PHA"
*MEAS_COND_AXIS_NAME_MAGICNO-0 "83951616.0000000000"
*MEAS_COND_AXIS_NAME_MAGICNO-1 "268632064.0000000000"
*MEAS_COND_AXIS_NAME_MAGICNO-2 "268500992.0000000000"
*MEAS_COND_AXIS_NAME_MAGICNO-3 "285278208.0000000000"
*MEAS_COND_AXIS_NAME_MAGICNO-4 "83951616.0000000000"
*MEAS_COND_AXIS_NAME_MAGICNO-5 "131072.0000000000"
*MEAS_COND_AXIS_NAME_MAGICNO-6 "131072.0000000000"
*MEAS_COND_AXIS_NAME_MAGICNO-7 "318898176.0000000000"
*MEAS_COND_AXIS_NAME_MAGICNO-8 "20971521.0000000000"
*MEAS_COND_AXIS_NAME_MAGICNO-9 "285343744.0000000000"
*MEAS_COND_AXIS_NAME_MAGICNO-10 "20971521.0000000000"
*MEAS_COND_AXIS_NAME_MAGICNO-11 "22020097.0000000000"
*MEAS_COND_AXIS_NAME_MAGICNO-12 "25165824.0000000000"
*MEAS_COND_AXIS_NAME_MAGICNO-13 "318898176.0000000000"
*MEAS_COND_AXIS_NAME_MAGICNO-14 "1.0000000000"
*MEAS_COND_AXIS_NAME_MAGICNO-15 "20971521.0000000000"
*MEAS_COND_AXIS_NAME_MAGICNO-16 "20971521.0000000000"
*MEAS_COND_AXIS_NAME_MAGICNO-17 "20971521.0000000000"
*MEAS_COND_AXIS_NAME_MAGICNO-18 "23068673.0000000000"
*MEAS_COND_AXIS_NAME_MAGICNO-19 "23068673.0000000000"
*MEAS_COND_AXIS_NAME_MAGICNO-20 "20971521.0000000000"
*MEAS_COND_AXIS_NAME_MAGICNO-21 "20971521.0000000000"
*MEAS_COND_AXIS_NAME_MAGICNO-22 "20971521.0000000000"
*MEAS_COND_AXIS_NAME_MAGICNO-23 "25165824.0000000000"
*MEAS_COND_AXIS_NAME_MAGICNO-24 "25165824.0000000000"
*MEAS_COND_AXIS_NAME_MAGICNO-25 "285343744.0000000000"
*MEAS_COND_AXIS_NAME_MAGICNO-26 "17301505.0000000000"
*MEAS_COND_AXIS_NAME_MAGICNO-27 "20971521.0000000000"
*MEAS_COND_AXIS_NAME_MAGICNO-28 "20971521.0000000000"
*MEAS_COND_AXIS_NAME_MAGICNO-29 "20971521.0000000000"
*MEAS_COND_AXIS_NAME_MAGICNO-30 "0.0000000000"
*MEAS_COND_AXIS_NAME_MAGICNO-31 "0.0000000000"
*MEAS_COND_AXIS_OFFSET-0 "-"
*MEAS_COND_AXIS_OFFSET-1 "0.9820000000"
*MEAS_COND_AXIS_OFFSET-2 "0.3761000000"
*MEAS_COND_AXIS_OFFSET-3 "-"
*MEAS_COND_AXIS_OFFSET-4 "-"
*MEAS_COND_AXIS_OFFSET-5 "0.3761000000"
*MEAS_COND_AXIS_OFFSET-6 "0.6059000000"
*MEAS_COND_AXIS_OFFSET-7 "-"
*MEAS_COND_AXIS_OFFSET-8 "-"
*MEAS_COND_AXIS_OFFSET-9 "-"
*MEAS_COND_AXIS_OFFSET-10 "-"
*MEAS_COND_AXIS_OFFSET-11 "-"
*MEAS_COND_AXIS_OFFSET-12 "-"
*MEAS_COND_AXIS_OFFSET-13 "-"
*MEAS_COND_AXIS_OFFSET-14 "-"
*MEAS_COND_AXIS_OFFSET-15 "-"
*MEAS_COND_AXIS_OFFSET-16 "-"
*MEAS_COND_AXIS_OFFSET-17 "-"
*MEAS_COND_AXIS_OFFSET-18 "-"
*MEAS_COND_AXIS_OFFSET-19 "-"
*MEAS_COND_AXIS_OFFSET-20 "-"
*MEAS_COND_AXIS_OFFSET-21 "-"
*MEAS_COND_AXIS_OFFSET-22 "-"
*MEAS_COND_AXIS_OFFSET-23 "-"
*MEAS_COND_AXIS_OFFSET-24 "-"
*MEAS_COND_AXIS_OFFSET-25 "-"
*MEAS_COND_AXIS_OFFSET-26 "-"
*MEAS_COND_AXIS_OFFSET-27 "-"
*MEAS_COND_AXIS_OFFSET-28 "-"
*MEAS_COND_AXIS_OFFSET-29 "-"
*MEAS_COND_AXIS_OFFSET-30 "-"
*MEAS_COND_AXIS_OFFSET-31 "-"
*MEAS_COND_AXIS_POSITION-0 "2.0000000000"
*MEAS_COND_AXIS_POSITION-1 "2.0000000000"
*MEAS_COND_AXIS_POSITION-2 "1.0000000000"
*MEAS_COND_AXIS_POSITION-3 "-1.9365600000"
*MEAS_COND_AXIS_POSITION-4 "2.0000000000"
*MEAS_COND_AXIS_POSITION-5 "1.0000000000"
*MEAS_COND_AXIS_POSITION-6 "1.0000000000"
*MEAS_COND_AXIS_POSITION-7 "0.2001900000"
*MEAS_COND_AXIS_POSITION-8 "PB"
*MEAS_COND_AXIS_POSITION-9 "0.0000000000"
*MEAS_COND_AXIS_POSITION-10 "Soller_slit_5.0deg"
*MEAS_COND_AXIS_POSITION-11 "0.200mm"
*MEAS_COND_AXIS_POSITION-12 "0.2000000000"
*MEAS_COND_AXIS_POSITION-13 "-1.2596900000"
*MEAS_COND_AXIS_POSITION-14 "0.0000000000"
*MEAS_COND_AXIS_POSITION-15 "10.0mm"
*MEAS_COND_AXIS_POSITION-16 "None"
*MEAS_COND_AXIS_POSITION-17 "None"
*MEAS_COND_AXIS_POSITION-18 "Open"
*MEAS_COND_AXIS_POSITION-19 "Open"
*MEAS_COND_AXIS_POSITION-20 "PSA_0.5deg"
*MEAS_COND_AXIS_POSITION-21 "Soller_slit_5.0deg"
*MEAS_COND_AXIS_POSITION-22 "None"
*MEAS_COND_AXIS_POSITION-23 "20.0000000000"
*MEAS_COND_AXIS_POSITION-24 "20.0000000000"
*MEAS_COND_AXIS_POSITION-25 "0.0000000000"
*MEAS_COND_AXIS_POSITION-26 "Open"
*MEAS_COND_AXIS_POSITION-27 "None"
*MEAS_COND_AXIS_POSITION-28 "None"
*MEAS_COND_AXIS_POSITION-29 "None"
*MEAS_COND_AXIS_POSITION-30 "638.0000000000"
*MEAS_COND_AXIS_POSITION-31 "572.5000000000"
*MEAS_COND_AXIS_UNIT-0 "deg"
*MEAS_COND_AXIS_UNIT-1 "deg"
*MEAS_COND_AXIS_UNIT-2 "deg"
*MEAS_COND_AXIS_UNIT-3 "mm"
*MEAS_COND_AXIS_UNIT-4 "deg"
*MEAS_COND_AXIS_UNIT-5 "deg"
*MEAS_COND_AXIS_UNIT-6 "deg"
*MEAS_COND_AXIS_UNIT-7 "mm"
*MEAS_COND_AXIS_UNIT-8 ""
*MEAS_COND_AXIS_UNIT-9 "pulse"
*MEAS_COND_AXIS_UNIT-10 ""
*MEAS_COND_AXIS_UNIT-11 ""
*MEAS_COND_AXIS_UNIT-12 "mm"
*MEAS_COND_AXIS_UNIT-13 "mm"
*MEAS_COND_AXIS_UNIT-14 ""
*MEAS_COND_AXIS_UNIT-15 ""
*MEAS_COND_AXIS_UNIT-16 ""
*MEAS_COND_AXIS_UNIT-17 ""
*MEAS_COND_AXIS_UNIT-18 ""
*MEAS_COND_AXIS_UNIT-19 ""
*MEAS_COND_AXIS_UNIT-20 ""
*MEAS_COND_AXIS_UNIT-21 ""
*MEAS_COND_AXIS_UNIT-22 ""
*MEAS_COND_AXIS_UNIT-23 "mm"
*MEAS_COND_AXIS_UNIT-24 "mm"
*MEAS_COND_AXIS_UNIT-25 "mm"
*MEAS_COND_AXIS_UNIT-26 ""
*MEAS_COND_AXIS_UNIT-27 ""
*MEAS_COND_AXIS_UNIT-28 ""
*MEAS_COND_AXIS_UNIT-29 ""
*MEAS_COND_AXIS_UNIT-30 "V"
*MEAS_COND_AXIS_UNIT-31 "mV"
*MEAS_COND_COUNTER_CNTLOSS_CORR "1.0000000000"
*MEAS_COND_COUNTER_PHABASE "572.5000000000"
*MEAS_COND_COUNTER_PHAWINDOW "831.2500000000"
*MEAS_COND_COUNTER_PHA_UNIT "mV"
*MEAS_COND_COUNTER_TAUDIFF "0.1945640000"
*MEAS_COND_COUNTER_TAUINT "0.6497890000"
*MEAS_COND_IRRADIATION_MODE "OFF"
*MEAS_COND_IRRADIATION_WIDTH ""
*MEAS_COND_OPT_ATTR "Medium resolution parallel beam/PSA"
*MEAS_COND_OPT_NAME "@Medium resolution PB/PSA"
*MEAS_COND_UNSYMMETRIC_MODE "OFF"
*MEAS_COND_XG_CURRENT "44.0000000000"
*MEAS_COND_XG_VOLTAGE "40.0000000000"
*MEAS_COND_XG_WAVE_TYPE "Ka"
*MEAS_DATA_COUNT "1401.0000000000"
*MEAS_SCAN_AXIS_X "2-Theta"
*MEAS_SCAN_AXIS_X_INTERNAL "TwoTheta"
*MEAS_SCAN_END_TIME "11/01/12 14:48:07"
*MEAS_SCAN_MODE "CONTINUOUS"
*MEAS_SCAN_MONITOR "0"
*MEAS_SCAN_RESOLUTION_X "0.0001"
*MEAS_SCAN_SPEED "0.2500"
*MEAS_SCAN_SPEED_UNIT "deg/min"
*MEAS_SCAN_START "2.0000000000"
*MEAS_SCAN_START_TIME "11/01/12 12:55:51"
*MEAS_SCAN_STEP "0.0200000000"
*MEAS_SCAN_STOP "30.0000000000"
*MEAS_SCAN_UNIT_X "deg"
*MEAS_SCAN_UNIT_Y "counts"
*RAS_HEADER_END
*RAS_INT_START
2.0000 7994.0000 1.0000
2.0200 7788.0000 1.0000
2.0400 7984.0000 1.0000
2.0600 7799.0000 1.0000
2.0800 7694.0000 1.0000
2.1000 7693.0000 1.0000
2.1200 7586.0000 1.0000
2.1400 7547.0000 1.0000
2.1600 7345.0000 1.0000
2.1800 7392.0000 1.0000
2.2000 7463.0000 1.0000
2.2200 7191.0000 1.0000
2.2400 7102.0000 1.0000
2.2600 7028.0000 1.0000
2.2800 7047.0000 1.0000
2.3000 7029.0000 1.0000
2.3200 7094.0000 1.0000
2.3400 6931.0000 1.0000
2.3600 6936.0000 1.0000
2.3800 6932.0000 1.0000
2.4000 6976.0000 1.0000
2.4200 6982.0000 1.0000
2.4400 6964.0000 1.0000
2.4600 6947.0000 1.0000
2.4800 6935.0000 1.0000
2.5000 6923.0000 1.0000
2.5200 6935.0000 1.0000
2.5400 7118.0000 1.0000
2.5600 7266.0000 1.0000
2.5800 7252.0000 1.0000
2.6000 7579.0000 1.0000
2.6200 7707.0000 1.0000
2.6400 8174.0000 1.0000
2.6600 8861.0000 1.0000
2.6800 9727.0000 1.0000
2.7000 11196.0000 1.0000
2.7200 12904.0000 1.0000
2.7400 14263.0000 1.0000
2.7600 15778.0000 1.0000
2.7800 17724.0000 1.0000
2.8000 18997.0000 1.0000
2.8200 20410.0000 1.0000
2.8400 21745.0000 1.0000
2.8600 22775.0000 1.0000
2.8800 23601.0000 1.0000
2.9000 24208.0000 1.0000
2.9200 24308.0000 1.0000
2.9400 24240.0000 1.0000
2.9600 23710.0000 1.0000
2.9800 22702.0000 1.0000
3.0000 21657.0000 1.0000
3.0200 20433.0000 1.0000
3.0400 18808.0000 1.0000
3.0600 17574.0000 1.0000
3.0800 15958.0000 1.0000
3.1000 14539.0000 1.0000
3.1200 12901.0000 1.0000
3.1400 11450.0000 1.0000
3.1600 10118.0000 1.0000
3.1800 9141.0000 1.0000
3.2000 8140.0000 1.0000
3.2200 7474.0000 1.0000
3.2400 7120.0000 1.0000
3.2600 6749.0000 1.0000
3.2800 6799.0000 1.0000
3.3000 6536.0000 1.0000
3.3200 6556.0000 1.0000
3.3400 6365.0000 1.0000
3.3600 6277.0000 1.0000
3.3800 6190.0000 1.0000
3.4000 6228.0000 1.0000
3.4200 6145.0000 1.0000
3.4400 6146.0000 1.0000
3.4600 6219.0000 1.0000
3.4800 6255.0000 1.0000
3.5000 6282.0000 1.0000
3.5200 6221.0000 1.0000
3.5400 6071.0000 1.0000
3.5600 6010.0000 1.0000
3.5800 6085.0000 1.0000
3.6000 6096.0000 1.0000
3.6200 6106.0000 1.0000
3.6400 6155.0000 1.0000
3.6600 6002.0000 1.0000
3.6800 5963.0000 1.0000
3.7000 6110.0000 1.0000
3.7200 6017.0000 1.0000
3.7400 6119.0000 1.0000
3.7600 5995.0000 1.0000
3.7800 5976.0000 1.0000
3.8000 6122.0000 1.0000
3.8200 5964.0000 1.0000
3.8400 6095.0000 1.0000
3.8600 5937.0000 1.0000
3.8800 6001.0000 1.0000
3.9000 5960.0000 1.0000
3.9200 5829.0000 1.0000
3.9400 5862.0000 1.0000
3.9600 6074.0000 1.0000
3.9800 5980.0000 1.0000
4.0000 6010.0000 1.0000
4.0200 5823.0000 1.0000
4.0400 5901.0000 1.0000
4.0600 5834.0000 1.0000
4.0800 5870.0000 1.0000
4.1000 6037.0000 1.0000
4.1200 5790.0000 1.0000
4.1400 5928.0000 1.0000
4.1600 5627.0000 1.0000
4.1800 5974.0000 1.0000
4.2000 5877.0000 1.0000
4.2200 5944.0000 1.0000
4.2400 5780.0000 1.0000
4.2600 5805.0000 1.0000
4.2800 5835.0000 1.0000
4.3000 5967.0000 1.0000
4.3200 5895.0000 1.0000
4.3400 5912.0000 1.0000
4.3600 5900.0000 1.0000
4.3800 5655.0000 1.0000
4.4000 5773.0000 1.0000
4.4200 5809.0000 1.0000
4.4400 5894.0000 1.0000
4.4600 5830.0000 1.0000
4.4800 5821.0000 1.0000
4.5000 5865.0000 1.0000
4.5200 5758.0000 1.0000
4.5400 5769.0000 1.0000
4.5600 5832.0000 1.0000
4.5800 5816.0000 1.0000
4.6000 5794.0000 1.0000
4.6200 5789.0000 1.0000
4.6400 5656.0000 1.0000
4.6600 5752.0000 1.0000
4.6800 5753.0000 1.0000
4.7000 5953.0000 1.0000
4.7200 5624.0000 1.0000
4.7400 5716.0000 1.0000
4.7600 5718.0000 1.0000
4.7800 5780.0000 1.0000
4.8000 5707.0000 1.0000
4.8200 5567.0000 1.0000
4.8400 5787.0000 1.0000
4.8600 5723.0000 1.0000
4.8800 5708.0000 1.0000
4.9000 5647.0000 1.0000
4.9200 5594.0000 1.0000
4.9400 5572.0000 1.0000
4.9600 5545.0000 1.0000
4.9800 5568.0000 1.0000
5.0000 5634.0000 1.0000
5.0200 5632.0000 1.0000
5.0400 5681.0000 1.0000
5.0600 5668.0000 1.0000
5.0800 5565.0000 1.0000
5.1000 5634.0000 1.0000
5.1200 5489.0000 1.0000
5.1400 5666.0000 1.0000
5.1600 5538.0000 1.0000
5.1800 5692.0000 1.0000
5.2000 5497.0000 1.0000
5.2200 5628.0000 1.0000
5.2400 5574.0000 1.0000
5.2600 5549.0000 1.0000
5.2800 5402.0000 1.0000
5.3000 5626.0000 1.0000
5.3200 5510.0000 1.0000
5.3400 5564.0000 1.0000
5.3600 5409.0000 1.0000
5.3800 5600.0000 1.0000
5.4000 5356.0000 1.0000
5.4200 5384.0000 1.0000
5.4400 5522.0000 1.0000
5.4600 5445.0000 1.0000
5.4800 5502.0000 1.0000
5.5000 5405.0000 1.0000
5.5200 5558.0000 1.0000
5.5400 5460.0000 1.0000
5.5600 5415.0000 1.0000
5.5800 5377.0000 1.0000
5.6000 5355.0000 1.0000
5.6200 5322.0000 1.0000
5.6400 5530.0000 1.0000
5.6600 5375.0000 1.0000
5.6800 5461.0000 1.0000
5.7000 5430.0000 1.0000
5.7200 5447.0000 1.0000
5.7400 5377.0000 1.0000
5.7600 5456.0000 1.0000
5.7800 5418.0000 1.0000
5.8000 5366.0000 1.0000
5.8200 5260.0000 1.0000
5.8400 5341.0000 1.0000
5.8600 5215.0000 1.0000
5.8800 5249.0000 1.0000
5.9000 5350.0000 1.0000
5.9200 5370.0000 1.0000
5.9400 5378.0000 1.0000
5.9600 5394.0000 1.0000
5.9800 5440.0000 1.0000
6.0000 5467.0000 1.0000
6.0200 5494.0000 1.0000
6.0400 5452.0000 1.0000
6.0600 5626.0000 1.0000
6.0800 5680.0000 1.0000
6.1000 5658.0000 1.0000
6.1200 5662.0000 1.0000
6.1400 5762.0000 1.0000
6.1600 5760.0000 1.0000
6.1800 5885.0000 1.0000
6.2000 5847.0000 1.0000
6.2200 6090.0000 1.0000
6.2400 6185.0000 1.0000
6.2600 6381.0000 1.0000
6.2800 6381.0000 1.0000
6.3000 6633.0000 1.0000
6.3200 6845.0000 1.0000
6.3400 7065.0000 1.0000
6.3600 7334.0000 1.0000
6.3800 7668.0000 1.0000
6.4000 8118.0000 1.0000
6.4200 8853.0000 1.0000
6.4400 9553.0000 1.0000
6.4600 10336.0000 1.0000
6.4800 11480.0000 1.0000
6.5000 13082.0000 1.0000
6.5200 15169.0000 1.0000
6.5400 17457.0000 1.0000
6.5600 21368.0000 1.0000
6.5800 26472.0000 1.0000
6.6000 32511.0000 1.0000
6.6200 41145.0000 1.0000
6.6400 51746.0000 1.0000
6.6600 64094.0000 1.0000
6.6800 76516.0000 1.0000
6.7000 90286.0000 1.0000
6.7200 103980.0000 1.0000
6.7400 117249.0000 1.0000
6.7600 129747.0000 1.0000
6.7800 142090.0000 1.0000
6.8000 152759.0000 1.0000
6.8200 162335.0000 1.0000
6.8400 168226.0000 1.0000
6.8600 171952.0000 1.0000
6.8800 173128.0000 1.0000
6.9000 171842.0000 1.0000
6.9200 168552.0000 1.0000
6.9400 162261.0000 1.0000
6.9600 153958.0000 1.0000
6.9800 143623.0000 1.0000
7.0000 133506.0000 1.0000
7.0200 120871.0000 1.0000
7.0400 108227.0000 1.0000
7.0600 95025.0000 1.0000
7.0800 82365.0000 1.0000
7.1000 70334.0000 1.0000
7.1200 59121.0000 1.0000
7.1400 50138.0000 1.0000
7.1600 42222.0000 1.0000
7.1800 35939.0000 1.0000
7.2000 30502.0000 1.0000
7.2200 25533.0000 1.0000
7.2400 22273.0000 1.0000
7.2600 18941.0000 1.0000
7.2800 16075.0000 1.0000
7.3000 14081.0000 1.0000
7.3200 12069.0000 1.0000
7.3400 10848.0000 1.0000
7.3600 9781.0000 1.0000
7.3800 8603.0000 1.0000
7.4000 7670.0000 1.0000
7.4200 7184.0000 1.0000
7.4400 6813.0000 1.0000
7.4600 6115.0000 1.0000
7.4800 5909.0000 1.0000
7.5000 5642.0000 1.0000
7.5200 5226.0000 1.0000
7.5400 4950.0000 1.0000
7.5600 5010.0000 1.0000
7.5800 4757.0000 1.0000
7.6000 4443.0000 1.0000
7.6200 4517.0000 1.0000
7.6400 4445.0000 1.0000
7.6600 4232.0000 1.0000
7.6800 4424.0000 1.0000
7.7000 4200.0000 1.0000
7.7200 4264.0000 1.0000
7.7400 4093.0000 1.0000
7.7600 4161.0000 1.0000
7.7800 4020.0000 1.0000
7.8000 3970.0000 1.0000
7.8200 3975.0000 1.0000
7.8400 4005.0000 1.0000
7.8600 3800.0000 1.0000
7.8800 3970.0000 1.0000
7.9000 3949.0000 1.0000
7.9200 3947.0000 1.0000
7.9400 3898.0000 1.0000
7.9600 3995.0000 1.0000
7.9800 3783.0000 1.0000
8.0000 3771.0000 1.0000
8.0200 3766.0000 1.0000
8.0400 3729.0000 1.0000
8.0600 3672.0000 1.0000
8.0800 3717.0000 1.0000
8.1000 3685.0000 1.0000
8.1200 3735.0000 1.0000
8.1400 3587.0000 1.0000
8.1600 3708.0000 1.0000
8.1800 3633.0000 1.0000
8.2000 3784.0000 1.0000
8.2200 3594.0000 1.0000
8.2400 3691.0000 1.0000
8.2600 3636.0000 1.0000
8.2800 3606.0000 1.0000
8.3000 3572.0000 1.0000
8.3200 3644.0000 1.0000
8.3400 3542.0000 1.0000
8.3600 3528.0000 1.0000
8.3800 3622.0000 1.0000
8.4000 3633.0000 1.0000
8.4200 3556.0000 1.0000
8.4400 3561.0000 1.0000
8.4600 3437.0000 1.0000
8.4800 3524.0000 1.0000
8.5000 3527.0000 1.0000
8.5200 3605.0000 1.0000
8.5400 3522.0000 1.0000
8.5600 3350.0000 1.0000
